; C:\Data\Jenni\Praktikum B2.2\11-12-18-Jörg\Probe3.raw(Diffrac Plus V1.01 file) converted by XCH V1.0
_FILEVERSION=2
_SAMPLE='Probe3'
_SITE='II. Physikalisches Institut'
_ATTACHMENTS_CODE=0
_GONIOMETER_RADIUS=200.500000
_FIXED_DIVSLIT=2.000000
_FIXED_SAMPLESLIT=1.000000
_FIXED_DETSLIT=0.200000
_MONOCHROMATOR=0
; None
_THIN_FILM='N'
_BETA_FILTER='Y'
_FIXED_ANTISLIT=2.000000
_ANALYZER_CODE=0
; None
_DATEMEASURED='13-Dec-2018 14:04:22'
_WL_UNIT='A'
_WL1=1.540590
_WL2=1.544430
_WL3=1.392230
_WLRATIO=0.520000
_ANODE='Cu'
; (Data for Range number 1)
_DRIVE='COUPLED'
_STEPTIME=5.000000
_STEPSIZE=0.020000
_STEPMODE='C'
_START=20.000000
_THETA=10.000000
_2THETA=20.000000
_KHI=0.000000
_PHI=0.000000
_X=0.000000
_Y=0.000000
_Z=0.000000
_DIVERGENCE=0.000000
_ANTISCATTER=0.000000
_DETECTOR=1
; S.C.
_HV=1000.000000
_GAIN=80.000000
_LLD=0.550000
_ULD=1.310000
_DETECTORSLIT='unkn'
_AUX1=0.000000
_AUX2=0.000000
_AUX3=0.000000
_TIMESTARTED=12.000000
_ROTATION_SPEED=120.000000
_TEMP_RATE=-1.000000
_TEMP_DELAY=-1.000000
_KV=40
_MA=40
_RANGE_WL=1.540590
_3DPLANE=0
_2THETACOUNTS
  20.0000       402
  20.0200       408
  20.0400       401
  20.0600       388
  20.0800       387
  20.1000       424
  20.1200       395
  20.1400       415
  20.1600       358
  20.1800       355
  20.2000       364
  20.2200       371
  20.2400       399
  20.2600       385
  20.2800       407
  20.3000       370
  20.3200       443
  20.3400       383
  20.3600       422
  20.3800       392
  20.4000       406
  20.4200       400
  20.4400       401
  20.4600       385
  20.4800       407
  20.5000       395
  20.5200       397
  20.5400       382
  20.5600       426
  20.5800       399
  20.6000       402
  20.6200       416
  20.6400       389
  20.6600       400
  20.6800       394
  20.7000       433
  20.7200       443
  20.7400       412
  20.7600       399
  20.7800       401
  20.8000       415
  20.8200       397
  20.8400       390
  20.8600       397
  20.8800       380
  20.9000       422
  20.9200       405
  20.9400       401
  20.9600       407
  20.9800       446
  21.0000       418
  21.0200       402
  21.0400       383
  21.0600       410
  21.0800       391
  21.1000       388
  21.1200       409
  21.1400       431
  21.1600       419
  21.1800       429
  21.2000       399
  21.2200       461
  21.2400       410
  21.2600       424
  21.2800       429
  21.3000       420
  21.3200       442
  21.3400       460
  21.3600       450
  21.3800       409
  21.4000       452
  21.4200       369
  21.4400       422
  21.4600       409
  21.4800       409
  21.5000       427
  21.5200       411
  21.5400       413
  21.5600       424
  21.5800       421
  21.6000       434
  21.6200       435
  21.6400       418
  21.6600       412
  21.6800       423
  21.7000       455
  21.7200       445
  21.7400       450
  21.7600       451
  21.7800       384
  21.8000       421
  21.8200       436
  21.8400       450
  21.8600       405
  21.8800       429
  21.9000       455
  21.9200       402
  21.9400       421
  21.9600       388
  21.9800       440
  22.0000       432
  22.0200       455
  22.0400       410
  22.0600       432
  22.0800       425
  22.1000       441
  22.1200       443
  22.1400       431
  22.1600       449
  22.1800       430
  22.2000       425
  22.2200       443
  22.2400       459
  22.2600       421
  22.2800       426
  22.3000       416
  22.3200       414
  22.3400       435
  22.3600       495
  22.3800       432
  22.4000       463
  22.4200       456
  22.4400       442
  22.4600       464
  22.4800       443
  22.5000       463
  22.5200       421
  22.5400       461
  22.5600       446
  22.5800       408
  22.6000       420
  22.6200       425
  22.6400       430
  22.6600       483
  22.6800       426
  22.7000       448
  22.7200       417
  22.7400       440
  22.7600       446
  22.7800       436
  22.8000       416
  22.8200       456
  22.8400       492
  22.8600       442
  22.8800       461
  22.9000       452
  22.9200       462
  22.9400       469
  22.9600       460
  22.9800       450
  23.0000       495
  23.0200       488
  23.0400       459
  23.0600       468
  23.0800       458
  23.1000       415
  23.1200       458
  23.1400       447
  23.1600       468
  23.1800       455
  23.2000       463
  23.2200       481
  23.2400       450
  23.2600       475
  23.2800       481
  23.3000       491
  23.3200       471
  23.3400       473
  23.3600       497
  23.3800       500
  23.4000       539
  23.4200       520
  23.4400       551
  23.4600       474
  23.4800       488
  23.5000       535
  23.5200       536
  23.5400       460
  23.5600       496
  23.5800       520
  23.6000       478
  23.6200       524
  23.6400       518
  23.6600       498
  23.6800       517
  23.7000       499
  23.7200       512
  23.7400       539
  23.7600       507
  23.7800       488
  23.8000       487
  23.8200       536
  23.8400       535
  23.8600       471
  23.8800       519
  23.9000       515
  23.9200       481
  23.9400       547
  23.9600       512
  23.9800       499
  24.0000       501
  24.0200       534
  24.0400       505
  24.0600       483
  24.0800       513
  24.1000       505
  24.1200       508
  24.1400       462
  24.1600       509
  24.1800       503
  24.2000       515
  24.2200       534
  24.2400       476
  24.2600       493
  24.2800       483
  24.3000       508
  24.3200       478
  24.3400       500
  24.3600       485
  24.3800       483
  24.4000       494
  24.4200       487
  24.4400       491
  24.4600       492
  24.4800       485
  24.5000       468
  24.5200       465
  24.5400       446
  24.5600       490
  24.5800       455
  24.6000       499
  24.6200       480
  24.6400       476
  24.6600       446
  24.6800       498
  24.7000       503
  24.7200       480
  24.7400       496
  24.7600       467
  24.7800       476
  24.8000       482
  24.8200       474
  24.8400       488
  24.8600       463
  24.8800       475
  24.9000       468
  24.9200       448
  24.9400       472
  24.9600       467
  24.9800       478
  25.0000       494
  25.0200       480
  25.0400       471
  25.0600       487
  25.0800       508
  25.1000       466
  25.1200       478
  25.1400       507
  25.1600       441
  25.1800       460
  25.2000       480
  25.2200       469
  25.2400       438
  25.2600       489
  25.2800       482
  25.3000       435
  25.3200       463
  25.3400       492
  25.3600       440
  25.3800       459
  25.4000       465
  25.4200       466
  25.4400       470
  25.4600       480
  25.4800       498
  25.5000       479
  25.5200       499
  25.5400       469
  25.5600       543
  25.5800       492
  25.6000       443
  25.6200       473
  25.6400       496
  25.6600       462
  25.6800       444
  25.7000       477
  25.7200       460
  25.7400       452
  25.7600       476
  25.7800       456
  25.8000       502
  25.8200       505
  25.8400       421
  25.8600       473
  25.8800       454
  25.9000       503
  25.9200       467
  25.9400       480
  25.9600       483
  25.9800       439
  26.0000       463
  26.0200       495
  26.0400       512
  26.0600       460
  26.0800       477
  26.1000       481
  26.1200       457
  26.1400       461
  26.1600       475
  26.1800       451
  26.2000       458
  26.2200       461
  26.2400       471
  26.2600       446
  26.2800       458
  26.3000       514
  26.3200       496
  26.3400       508
  26.3600       494
  26.3800       517
  26.4000       424
  26.4200       475
  26.4400       474
  26.4600       466
  26.4800       499
  26.5000       448
  26.5200       441
  26.5400       475
  26.5600       475
  26.5800       424
  26.6000       478
  26.6200       448
  26.6400       483
  26.6600       528
  26.6800       490
  26.7000       509
  26.7200       470
  26.7400       451
  26.7600       476
  26.7800       479
  26.8000       437
  26.8200       447
  26.8400       473
  26.8600       499
  26.8800       452
  26.9000       462
  26.9200       495
  26.9400       481
  26.9600       538
  26.9800       467
  27.0000       483
  27.0200       475
  27.0400       491
  27.0600       498
  27.0800       514
  27.1000       519
  27.1200       511
  27.1400       480
  27.1600       521
  27.1800       463
  27.2000       435
  27.2200       487
  27.2400       517
  27.2600       505
  27.2800       454
  27.3000       488
  27.3200       465
  27.3400       494
  27.3600       498
  27.3800       484
  27.4000       446
  27.4200       497
  27.4400       481
  27.4600       500
  27.4800       463
  27.5000       496
  27.5200       495
  27.5400       463
  27.5600       454
  27.5800       507
  27.6000       505
  27.6200       487
  27.6400       521
  27.6600       493
  27.6800       444
  27.7000       494
  27.7200       481
  27.7400       492
  27.7600       526
  27.7800       501
  27.8000       505
  27.8200       488
  27.8400       495
  27.8600       495
  27.8800       482
  27.9000       459
  27.9200       491
  27.9400       506
  27.9600       479
  27.9800       475
  28.0000       499
  28.0200       490
  28.0400       455
  28.0600       474
  28.0800       485
  28.1000       501
  28.1200       491
  28.1400       500
  28.1600       468
  28.1800       519
  28.2000       486
  28.2200       454
  28.2400       511
  28.2600       475
  28.2800       497
  28.3000       484
  28.3200       516
  28.3400       464
  28.3600       456
  28.3800       460
  28.4000       479
  28.4200       501
  28.4400       522
  28.4600       480
  28.4800       510
  28.5000       505
  28.5200       487
  28.5400       468
  28.5600       494
  28.5800       508
  28.6000       496
  28.6200       504
  28.6400       459
  28.6600       523
  28.6800       496
  28.7000       495
  28.7200       490
  28.7400       514
  28.7600       510
  28.7800       540
  28.8000       478
  28.8200       500
  28.8400       517
  28.8600       511
  28.8800       493
  28.9000       534
  28.9200       488
  28.9400       482
  28.9600       471
  28.9800       477
  29.0000       479
  29.0200       496
  29.0400       511
  29.0600       455
  29.0800       517
  29.1000       482
  29.1200       476
  29.1400       494
  29.1600       497
  29.1800       473
  29.2000       421
  29.2200       514
  29.2400       476
  29.2600       506
  29.2800       467
  29.3000       455
  29.3200       504
  29.3400       499
  29.3600       459
  29.3800       506
  29.4000       491
  29.4200       486
  29.4400       490
  29.4600       468
  29.4800       504
  29.5000       527
  29.5200       480
  29.5400       504
  29.5600       517
  29.5800       524
  29.6000       524
  29.6200       490
  29.6400       462
  29.6600       471
  29.6800       532
  29.7000       485
  29.7200       507
  29.7400       469
  29.7600       521
  29.7800       529
  29.8000       525
  29.8200       482
  29.8400       511
  29.8600       524
  29.8800       464
  29.9000       504
  29.9200       475
  29.9400       537
  29.9600       493
  29.9800       491
  30.0000       501
  30.0200       462
  30.0400       494
  30.0600       502
  30.0800       501
  30.1000       515
  30.1200       508
  30.1400       506
  30.1600       523
  30.1800       522
  30.2000       505
  30.2200       549
  30.2400       509
  30.2600       525
  30.2800       455
  30.3000       491
  30.3200       521
  30.3400       487
  30.3600       460
  30.3800       485
  30.4000       543
  30.4200       510
  30.4400       533
  30.4600       542
  30.4800       506
  30.5000       517
  30.5200       516
  30.5400       517
  30.5600       500
  30.5800       548
  30.6000       509
  30.6200       483
  30.6400       504
  30.6600       524
  30.6800       504
  30.7000       483
  30.7200       496
  30.7400       521
  30.7600       522
  30.7800       481
  30.8000       470
  30.8200       533
  30.8400       458
  30.8600       503
  30.8800       514
  30.9000       512
  30.9200       512
  30.9400       511
  30.9600       517
  30.9800       488
  31.0000       509
  31.0200       529
  31.0400       484
  31.0600       465
  31.0800       551
  31.1000       497
  31.1200       503
  31.1400       513
  31.1600       498
  31.1800       527
  31.2000       496
  31.2200       518
  31.2400       490
  31.2600       508
  31.2800       518
  31.3000       469
  31.3200       489
  31.3400       463
  31.3600       487
  31.3800       499
  31.4000       505
  31.4200       533
  31.4400       472
  31.4600       549
  31.4800       515
  31.5000       535
  31.5200       532
  31.5400       529
  31.5600       496
  31.5800       470
  31.6000       514
  31.6200       456
  31.6400       539
  31.6600       516
  31.6800       546
  31.7000       537
  31.7200       532
  31.7400       507
  31.7600       539
  31.7800       535
  31.8000       540
  31.8200       518
  31.8400       522
  31.8600       488
  31.8800       525
  31.9000       541
  31.9200       482
  31.9400       509
  31.9600       470
  31.9800       521
  32.0000       564
  32.0200       500
  32.0400       496
  32.0600       529
  32.0800       545
  32.1000       516
  32.1200       531
  32.1400       490
  32.1600       517
  32.1800       533
  32.2000       510
  32.2200       489
  32.2400       530
  32.2600       529
  32.2800       542
  32.3000       558
  32.3200       515
  32.3400       517
  32.3600       562
  32.3800       547
  32.4000       543
  32.4200       516
  32.4400       497
  32.4600       495
  32.4800       539
  32.5000       534
  32.5200       470
  32.5400       528
  32.5600       538
  32.5800       517
  32.6000       520
  32.6200       531
  32.6400       521
  32.6600       495
  32.6800       516
  32.7000       507
  32.7200       548
  32.7400       516
  32.7600       509
  32.7800       562
  32.8000       538
  32.8200       528
  32.8400       510
  32.8600       505
  32.8800       540
  32.9000       528
  32.9200       505
  32.9400       520
  32.9600       516
  32.9800       549
  33.0000       514
  33.0200       487
  33.0400       561
  33.0600       506
  33.0800       545
  33.1000       561
  33.1200       551
  33.1400       573
  33.1600       542
  33.1800       531
  33.2000       525
  33.2200       556
  33.2400       597
  33.2600       558
  33.2800       526
  33.3000       554
  33.3200       526
  33.3400       582
  33.3600       562
  33.3800       586
  33.4000       579
  33.4200       565
  33.4400       589
  33.4600       584
  33.4800       551
  33.5000       570
  33.5200       586
  33.5400       569
  33.5600       625
  33.5800       617
  33.6000       612
  33.6200       627
  33.6400       659
  33.6600       601
  33.6800       608
  33.7000       619
  33.7200       593
  33.7400       605
  33.7600       609
  33.7800       585
  33.8000       600
  33.8200       621
  33.8400       621
  33.8600       614
  33.8800       591
  33.9000       636
  33.9200       578
  33.9400       613
  33.9600       551
  33.9800       580
  34.0000       599
  34.0200       530
  34.0400       561
  34.0600       562
  34.0800       582
  34.1000       553
  34.1200       574
  34.1400       567
  34.1600       572
  34.1800       512
  34.2000       532
  34.2200       565
  34.2400       528
  34.2600       564
  34.2800       563
  34.3000       545
  34.3200       499
  34.3400       525
  34.3600       535
  34.3800       522
  34.4000       515
  34.4200       459
  34.4400       507
  34.4600       527
  34.4800       512
  34.5000       549
  34.5200       498
  34.5400       541
  34.5600       505
  34.5800       550
  34.6000       499
  34.6200       506
  34.6400       526
  34.6600       477
  34.6800       516
  34.7000       507
  34.7200       497
  34.7400       517
  34.7600       483
  34.7800       529
  34.8000       489
  34.8200       530
  34.8400       471
  34.8600       487
  34.8800       493
  34.9000       505
  34.9200       484
  34.9400       504
  34.9600       478
  34.9800       549
  35.0000       526
  35.0200       475
  35.0400       518
  35.0600       535
  35.0800       528
  35.1000       478
  35.1200       481
  35.1400       523
  35.1600       467
  35.1800       519
  35.2000       509
  35.2200       498
  35.2400       460
  35.2600       548
  35.2800       468
  35.3000       537
  35.3200       503
  35.3400       507
  35.3600       520
  35.3800       527
  35.4000       525
  35.4200       528
  35.4400       455
  35.4600       541
  35.4800       542
  35.5000       513
  35.5200       571
  35.5400       509
  35.5600       525
  35.5800       501
  35.6000       495
  35.6200       527
  35.6400       502
  35.6600       497
  35.6800       479
  35.7000       470
  35.7200       495
  35.7400       493
  35.7600       456
  35.7800       489
  35.8000       465
  35.8200       511
  35.8400       521
  35.8600       521
  35.8800       502
  35.9000       496
  35.9200       494
  35.9400       514
  35.9600       521
  35.9800       549
  36.0000       535
  36.0200       540
  36.0400       505
  36.0600       562
  36.0800       540
  36.1000       512
  36.1200       522
  36.1400       528
  36.1600       531
  36.1800       503
  36.2000       549
  36.2200       523
  36.2400       477
  36.2600       545
  36.2800       506
  36.3000       558
  36.3200       499
  36.3400       541
  36.3600       542
  36.3800       540
  36.4000       536
  36.4200       470
  36.4400       546
  36.4600       534
  36.4800       547
  36.5000       517
  36.5200       532
  36.5400       523
  36.5600       523
  36.5800       486
  36.6000       556
  36.6200       538
  36.6400       587
  36.6600       536
  36.6800       549
  36.7000       496
  36.7200       515
  36.7400       487
  36.7600       529
  36.7800       519
  36.8000       520
  36.8200       561
  36.8400       554
  36.8600       524
  36.8800       551
  36.9000       566
  36.9200       552
  36.9400       444
  36.9600       513
  36.9800       513
  37.0000       534
  37.0200       568
  37.0400       554
  37.0600       525
  37.0800       506
  37.1000       543
  37.1200       529
  37.1400       546
  37.1600       548
  37.1800       571
  37.2000       531
  37.2200       522
  37.2400       576
  37.2600       566
  37.2800       553
  37.3000       529
  37.3200       566
  37.3400       527
  37.3600       557
  37.3800       535
  37.4000       536
  37.4200       526
  37.4400       519
  37.4600       565
  37.4800       530
  37.5000       522
  37.5200       530
  37.5400       533
  37.5600       527
  37.5800       511
  37.6000       522
  37.6200       541
  37.6400       518
  37.6600       527
  37.6800       505
  37.7000       569
  37.7200       551
  37.7400       560
  37.7600       550
  37.7800       579
  37.8000       569
  37.8200       562
  37.8400       581
  37.8600       540
  37.8800       589
  37.9000       527
  37.9200       598
  37.9400       514
  37.9600       540
  37.9800       574
  38.0000       592
  38.0200       562
  38.0400       593
  38.0600       540
  38.0800       592
  38.1000       554
  38.1200       564
  38.1400       561
  38.1600       546
  38.1800       545
  38.2000       566
  38.2200       535
  38.2400       566
  38.2600       579
  38.2800       542
  38.3000       513
  38.3200       576
  38.3400       570
  38.3600       556
  38.3800       554
  38.4000       547
  38.4200       539
  38.4400       568
  38.4600       540
  38.4800       568
  38.5000       534
  38.5200       566
  38.5400       539
  38.5600       564
  38.5800       562
  38.6000       558
  38.6200       554
  38.6400       517
  38.6600       557
  38.6800       596
  38.7000       563
  38.7200       541
  38.7400       581
  38.7600       557
  38.7800       601
  38.8000       539
  38.8200       556
  38.8400       566
  38.8600       573
  38.8800       537
  38.9000       546
