; C:\Data\Jenni\Praktikum B2.2\Probe4_450abgeschreckt_abgeschliffen_Messung.raw(Diffrac Plus V1.01 file) converted by XCH V1.0
_FILEVERSION=2
_SAMPLE='Probe 4'
_SITE='II. Physikalisches Institut'
_ATTACHMENTS_CODE=0
_GONIOMETER_RADIUS=200.500000
_FIXED_DIVSLIT=2.000000
_FIXED_SAMPLESLIT=1.000000
_FIXED_DETSLIT=0.200000
_MONOCHROMATOR=0
; None
_THIN_FILM='N'
_BETA_FILTER='Y'
_FIXED_ANTISLIT=2.000000
_ANALYZER_CODE=0
; None
_DATEMEASURED='23-Nov-2018 12:39:02'
_WL_UNIT='A'
_WL1=1.540590
_WL2=1.544430
_WL3=1.392230
_WLRATIO=0.520000
_ANODE='Cu'
; (Data for Range number 1)
_DRIVE='COUPLED'
_STEPTIME=5.000000
_STEPSIZE=0.020000
_STEPMODE='C'
_START=20.000000
_THETA=10.000000
_2THETA=20.000000
_KHI=0.000000
_PHI=0.000000
_X=0.000000
_Y=0.000000
_Z=0.000000
_DIVERGENCE=0.000000
_ANTISCATTER=0.000000
_DETECTOR=1
; S.C.
_HV=1000.000000
_GAIN=80.000000
_LLD=0.550000
_ULD=1.310000
_DETECTORSLIT='unkn'
_AUX1=0.000000
_AUX2=0.000000
_AUX3=0.000000
_TIMESTARTED=14.000000
_ROTATION_SPEED=120.000000
_TEMP_RATE=-1.000000
_TEMP_DELAY=-1.000000
_KV=40
_MA=40
_RANGE_WL=1.540590
_3DPLANE=0
_2THETACOUNTS
  20.0000       444
  20.0200       402
  20.0400       457
  20.0600       427
  20.0800       421
  20.1000       450
  20.1200       407
  20.1400       398
  20.1600       432
  20.1800       459
  20.2000       470
  20.2200       430
  20.2400       402
  20.2600       426
  20.2800       419
  20.3000       427
  20.3200       427
  20.3400       423
  20.3600       407
  20.3800       429
  20.4000       430
  20.4200       444
  20.4400       472
  20.4600       456
  20.4800       454
  20.5000       422
  20.5200       400
  20.5400       502
  20.5600       463
  20.5800       488
  20.6000       409
  20.6200       461
  20.6400       481
  20.6600       495
  20.6800       461
  20.7000       458
  20.7200       461
  20.7400       449
  20.7600       457
  20.7800       420
  20.8000       462
  20.8200       443
  20.8400       456
  20.8600       446
  20.8800       429
  20.9000       451
  20.9200       433
  20.9400       483
  20.9600       423
  20.9800       415
  21.0000       457
  21.0200       470
  21.0400       443
  21.0600       432
  21.0800       444
  21.1000       431
  21.1200       436
  21.1400       443
  21.1600       476
  21.1800       452
  21.2000       461
  21.2200       439
  21.2400       472
  21.2600       459
  21.2800       471
  21.3000       440
  21.3200       460
  21.3400       419
  21.3600       484
  21.3800       423
  21.4000       453
  21.4200       476
  21.4400       440
  21.4600       486
  21.4800       458
  21.5000       484
  21.5200       483
  21.5400       478
  21.5600       484
  21.5800       486
  21.6000       437
  21.6200       447
  21.6400       442
  21.6600       423
  21.6800       491
  21.7000       435
  21.7200       421
  21.7400       439
  21.7600       454
  21.7800       464
  21.8000       438
  21.8200       429
  21.8400       447
  21.8600       440
  21.8800       481
  21.9000       440
  21.9200       411
  21.9400       451
  21.9600       462
  21.9800       427
  22.0000       455
  22.0200       458
  22.0400       493
  22.0600       428
  22.0800       438
  22.1000       459
  22.1200       446
  22.1400       444
  22.1600       418
  22.1800       442
  22.2000       402
  22.2200       443
  22.2400       385
  22.2600       433
  22.2800       451
  22.3000       461
  22.3200       434
  22.3400       437
  22.3600       471
  22.3800       436
  22.4000       452
  22.4200       448
  22.4400       472
  22.4600       444
  22.4800       444
  22.5000       454
  22.5200       449
  22.5400       413
  22.5600       439
  22.5800       434
  22.6000       392
  22.6200       420
  22.6400       434
  22.6600       419
  22.6800       445
  22.7000       450
  22.7200       448
  22.7400       471
  22.7600       425
  22.7800       447
  22.8000       445
  22.8200       416
  22.8400       463
  22.8600       457
  22.8800       372
  22.9000       417
  22.9200       462
  22.9400       429
  22.9600       458
  22.9800       457
  23.0000       432
  23.0200       467
  23.0400       429
  23.0600       453
  23.0800       445
  23.1000       429
  23.1200       474
  23.1400       426
  23.1600       434
  23.1800       446
  23.2000       423
  23.2200       390
  23.2400       438
  23.2600       472
  23.2800       443
  23.3000       444
  23.3200       424
  23.3400       454
  23.3600       418
  23.3800       450
  23.4000       436
  23.4200       425
  23.4400       436
  23.4600       452
  23.4800       481
  23.5000       439
  23.5200       453
  23.5400       406
  23.5600       442
  23.5800       406
  23.6000       405
  23.6200       442
  23.6400       445
  23.6600       440
  23.6800       414
  23.7000       425
  23.7200       465
  23.7400       478
  23.7600       431
  23.7800       448
  23.8000       420
  23.8200       472
  23.8400       469
  23.8600       448
  23.8800       421
  23.9000       415
  23.9200       464
  23.9400       453
  23.9600       448
  23.9800       438
  24.0000       451
  24.0200       421
  24.0400       410
  24.0600       399
  24.0800       413
  24.1000       433
  24.1200       447
  24.1400       425
  24.1600       506
  24.1800       423
  24.2000       460
  24.2200       452
  24.2400       450
  24.2600       453
  24.2800       485
  24.3000       432
  24.3200       432
  24.3400       431
  24.3600       458
  24.3800       461
  24.4000       460
  24.4200       418
  24.4400       464
  24.4600       424
  24.4800       438
  24.5000       421
  24.5200       429
  24.5400       438
  24.5600       440
  24.5800       453
  24.6000       452
  24.6200       436
  24.6400       453
  24.6600       442
  24.6800       463
  24.7000       464
  24.7200       417
  24.7400       426
  24.7600       453
  24.7800       499
  24.8000       406
  24.8200       482
  24.8400       401
  24.8600       435
  24.8800       451
  24.9000       441
  24.9200       481
  24.9400       473
  24.9600       424
  24.9800       459
  25.0000       433
  25.0200       430
  25.0400       425
  25.0600       448
  25.0800       463
  25.1000       455
  25.1200       437
  25.1400       417
  25.1600       440
  25.1800       447
  25.2000       432
  25.2200       427
  25.2400       443
  25.2600       448
  25.2800       416
  25.3000       430
  25.3200       452
  25.3400       406
  25.3600       419
  25.3800       477
  25.4000       407
  25.4200       462
  25.4400       439
  25.4600       405
  25.4800       433
  25.5000       433
  25.5200       435
  25.5400       432
  25.5600       466
  25.5800       456
  25.6000       432
  25.6200       458
  25.6400       428
  25.6600       436
  25.6800       424
  25.7000       458
  25.7200       438
  25.7400       397
  25.7600       381
  25.7800       443
  25.8000       440
  25.8200       407
  25.8400       436
  25.8600       468
  25.8800       432
  25.9000       433
  25.9200       447
  25.9400       435
  25.9600       446
  25.9800       459
  26.0000       390
  26.0200       441
  26.0400       430
  26.0600       386
  26.0800       449
  26.1000       475
  26.1200       433
  26.1400       403
  26.1600       426
  26.1800       460
  26.2000       447
  26.2200       402
  26.2400       431
  26.2600       435
  26.2800       429
  26.3000       423
  26.3200       433
  26.3400       442
  26.3600       450
  26.3800       450
  26.4000       423
  26.4200       445
  26.4400       428
  26.4600       438
  26.4800       405
  26.5000       427
  26.5200       475
  26.5400       444
  26.5600       447
  26.5800       446
  26.6000       441
  26.6200       403
  26.6400       412
  26.6600       449
  26.6800       423
  26.7000       459
  26.7200       412
  26.7400       436
  26.7600       477
  26.7800       455
  26.8000       431
  26.8200       426
  26.8400       414
  26.8600       433
  26.8800       416
  26.9000       423
  26.9200       417
  26.9400       462
  26.9600       422
  26.9800       473
  27.0000       493
  27.0200       545
  27.0400       493
  27.0600       560
  27.0800       520
  27.1000       498
  27.1200       498
  27.1400       499
  27.1600       456
  27.1800       431
  27.2000       449
  27.2200       467
  27.2400       443
  27.2600       436
  27.2800       460
  27.3000       403
  27.3200       454
  27.3400       443
  27.3600       431
  27.3800       493
  27.4000       383
  27.4200       426
  27.4400       486
  27.4600       421
  27.4800       423
  27.5000       458
  27.5200       466
  27.5400       463
  27.5600       454
  27.5800       431
  27.6000       422
  27.6200       413
  27.6400       468
  27.6600       466
  27.6800       422
  27.7000       454
  27.7200       431
  27.7400       449
  27.7600       435
  27.7800       421
  27.8000       423
  27.8200       456
  27.8400       409
  27.8600       454
  27.8800       433
  27.9000       444
  27.9200       422
  27.9400       434
  27.9600       452
  27.9800       474
  28.0000       440
  28.0200       439
  28.0400       451
  28.0600       425
  28.0800       465
  28.1000       380
  28.1200       432
  28.1400       427
  28.1600       451
  28.1800       482
  28.2000       441
  28.2200       416
  28.2400       454
  28.2600       460
  28.2800       473
  28.3000       465
  28.3200       469
  28.3400       476
  28.3600       440
  28.3800       434
  28.4000       458
  28.4200       416
  28.4400       444
  28.4600       436
  28.4800       434
  28.5000       437
  28.5200       454
  28.5400       457
  28.5600       522
  28.5800       460
  28.6000       451
  28.6200       456
  28.6400       471
  28.6600       474
  28.6800       442
  28.7000       409
  28.7200       452
  28.7400       430
  28.7600       429
  28.7800       426
  28.8000       448
  28.8200       460
  28.8400       459
  28.8600       446
  28.8800       457
  28.9000       457
  28.9200       409
  28.9400       449
  28.9600       446
  28.9800       416
  29.0000       425
  29.0200       439
  29.0400       455
  29.0600       448
  29.0800       449
  29.1000       455
  29.1200       408
  29.1400       437
  29.1600       412
  29.1800       449
  29.2000       486
  29.2200       423
  29.2400       433
  29.2600       419
  29.2800       421
  29.3000       419
  29.3200       441
  29.3400       457
  29.3600       457
  29.3800       460
  29.4000       441
  29.4200       450
  29.4400       433
  29.4600       414
  29.4800       440
  29.5000       415
  29.5200       457
  29.5400       424
  29.5600       436
  29.5800       461
  29.6000       461
  29.6200       406
  29.6400       474
  29.6600       409
  29.6800       441
  29.7000       440
  29.7200       456
  29.7400       420
  29.7600       452
  29.7800       390
  29.8000       426
  29.8200       446
  29.8400       439
  29.8600       416
  29.8800       412
  29.9000       410
  29.9200       419
  29.9400       438
  29.9600       427
  29.9800       410
  30.0000       393
  30.0200       413
  30.0400       399
  30.0600       437
  30.0800       432
  30.1000       452
  30.1200       471
  30.1400       446
  30.1600       457
  30.1800       479
  30.2000       423
  30.2200       405
  30.2400       418
  30.2600       428
  30.2800       425
  30.3000       438
  30.3200       439
  30.3400       425
  30.3600       413
  30.3800       440
  30.4000       411
  30.4200       442
  30.4400       416
  30.4600       426
  30.4800       448
  30.5000       427
  30.5200       435
  30.5400       409
  30.5600       438
  30.5800       411
  30.6000       424
  30.6200       464
  30.6400       416
  30.6600       415
  30.6800       454
  30.7000       420
  30.7200       413
  30.7400       446
  30.7600       412
  30.7800       417
  30.8000       477
  30.8200       413
  30.8400       421
  30.8600       405
  30.8800       420
  30.9000       457
  30.9200       430
  30.9400       426
  30.9600       486
  30.9800       425
  31.0000       449
  31.0200       377
  31.0400       432
  31.0600       411
  31.0800       463
  31.1000       407
  31.1200       449
  31.1400       435
  31.1600       445
  31.1800       461
  31.2000       406
  31.2200       428
  31.2400       413
  31.2600       427
  31.2800       459
  31.3000       442
  31.3200       403
  31.3400       433
  31.3600       418
  31.3800       394
  31.4000       447
  31.4200       436
  31.4400       440
  31.4600       440
  31.4800       445
  31.5000       446
  31.5200       421
  31.5400       407
  31.5600       415
  31.5800       438
  31.6000       447
  31.6200       441
  31.6400       454
  31.6600       421
  31.6800       387
  31.7000       437
  31.7200       430
  31.7400       463
  31.7600       427
  31.7800       427
  31.8000       448
  31.8200       424
  31.8400       440
  31.8600       435
  31.8800       448
  31.9000       405
  31.9200       427
  31.9400       439
  31.9600       460
  31.9800       440
  32.0000       468
  32.0200       459
  32.0400       436
  32.0600       459
  32.0800       477
  32.1000       433
  32.1200       418
  32.1400       437
  32.1600       418
  32.1800       453
  32.2000       436
  32.2200       460
  32.2400       461
  32.2600       425
  32.2800       433
  32.3000       439
  32.3200       439
  32.3400       427
  32.3600       414
  32.3800       454
  32.4000       435
  32.4200       456
  32.4400       439
  32.4600       425
  32.4800       444
  32.5000       458
  32.5200       430
  32.5400       420
  32.5600       431
  32.5800       417
  32.6000       439
  32.6200       434
  32.6400       447
  32.6600       424
  32.6800       396
  32.7000       401
  32.7200       471
  32.7400       458
  32.7600       430
  32.7800       441
  32.8000       458
  32.8200       441
  32.8400       471
  32.8600       432
  32.8800       456
  32.9000       418
  32.9200       422
  32.9400       471
  32.9600       388
  32.9800       465
  33.0000       461
  33.0200       419
  33.0400       450
  33.0600       444
  33.0800       386
  33.1000       424
  33.1200       460
  33.1400       457
  33.1600       437
  33.1800       427
  33.2000       430
  33.2200       463
  33.2400       432
  33.2600       429
  33.2800       473
  33.3000       413
  33.3200       442
  33.3400       442
  33.3600       453
  33.3800       467
  33.4000       451
  33.4200       482
  33.4400       444
  33.4600       441
  33.4800       463
  33.5000       440
  33.5200       437
  33.5400       479
  33.5600       462
  33.5800       414
  33.6000       492
  33.6200       456
  33.6400       439
  33.6600       435
  33.6800       445
  33.7000       417
  33.7200       424
  33.7400       422
  33.7600       420
  33.7800       438
  33.8000       438
  33.8200       443
  33.8400       419
  33.8600       414
  33.8800       419
  33.9000       455
  33.9200       423
  33.9400       407
  33.9600       389
  33.9800       423
  34.0000       465
  34.0200       398
  34.0400       415
  34.0600       417
  34.0800       406
  34.1000       438
  34.1200       431
  34.1400       413
  34.1600       401
  34.1800       449
  34.2000       401
  34.2200       390
  34.2400       450
  34.2600       429
  34.2800       430
  34.3000       436
  34.3200       423
  34.3400       390
  34.3600       416
  34.3800       438
  34.4000       419
  34.4200       456
  34.4400       410
  34.4600       423
  34.4800       450
  34.5000       418
  34.5200       422
  34.5400       446
  34.5600       382
  34.5800       455
  34.6000       420
  34.6200       404
  34.6400       449
  34.6600       421
  34.6800       433
  34.7000       392
  34.7200       451
  34.7400       417
  34.7600       438
  34.7800       391
  34.8000       430
  34.8200       417
  34.8400       406
  34.8600       426
  34.8800       403
  34.9000       444
  34.9200       412
  34.9400       402
  34.9600       439
  34.9800       378
  35.0000       413
  35.0200       415
  35.0400       413
  35.0600       417
  35.0800       385
  35.1000       392
  35.1200       402
  35.1400       420
  35.1600       436
  35.1800       434
  35.2000       441
  35.2200       411
  35.2400       393
  35.2600       397
  35.2800       413
  35.3000       444
  35.3200       401
  35.3400       431
  35.3600       420
  35.3800       408
  35.4000       446
  35.4200       413
  35.4400       414
  35.4600       399
  35.4800       439
  35.5000       391
  35.5200       415
  35.5400       415
  35.5600       424
  35.5800       395
  35.6000       376
  35.6200       418
  35.6400       431
  35.6600       461
  35.6800       410
  35.7000       387
  35.7200       410
  35.7400       422
  35.7600       413
  35.7800       475
  35.8000       395
  35.8200       397
  35.8400       423
  35.8600       404
  35.8800       426
  35.9000       401
  35.9200       424
  35.9400       415
  35.9600       435
  35.9800       434
  36.0000       436
  36.0200       438
  36.0400       410
  36.0600       461
  36.0800       462
  36.1000       430
  36.1200       440
  36.1400       452
  36.1600       458
  36.1800       467
  36.2000       453
  36.2200       462
  36.2400       492
  36.2600       496
  36.2800       504
  36.3000       484
  36.3200       477
  36.3400       522
  36.3600       522
  36.3800       538
  36.4000       507
  36.4200       511
  36.4400       496
  36.4600       496
  36.4800       489
  36.5000       506
  36.5200       522
  36.5400       477
  36.5600       502
  36.5800       473
  36.6000       461
  36.6200       453
  36.6400       484
  36.6600       400
  36.6800       440
  36.7000       421
  36.7200       444
  36.7400       439
  36.7600       414
  36.7800       435
  36.8000       459
  36.8200       408
  36.8400       419
  36.8600       421
  36.8800       416
  36.9000       410
  36.9200       426
  36.9400       445
  36.9600       415
  36.9800       415
  37.0000       411
  37.0200       431
  37.0400       408
  37.0600       390
  37.0800       394
  37.1000       425
  37.1200       411
  37.1400       399
  37.1600       456
  37.1800       430
  37.2000       433
  37.2200       411
  37.2400       393
  37.2600       403
  37.2800       394
  37.3000       386
  37.3200       415
  37.3400       429
  37.3600       423
  37.3800       435
  37.4000       402
  37.4200       391
  37.4400       424
  37.4600       440
  37.4800       438
  37.5000       422
  37.5200       439
  37.5400       408
  37.5600       428
  37.5800       415
  37.6000       396
  37.6200       417
  37.6400       401
  37.6600       443
  37.6800       420
  37.7000       417
  37.7200       412
  37.7400       384
  37.7600       419
  37.7800       399
  37.8000       434
  37.8200       461
  37.8400       438
  37.8600       411
  37.8800       399
  37.9000       422
  37.9200       393
  37.9400       444
  37.9600       453
  37.9800       424
  38.0000       440
  38.0200       446
  38.0400       385
  38.0600       414
  38.0800       406
  38.1000       402
  38.1200       398
  38.1400       437
  38.1600       411
  38.1800       397
  38.2000       426
  38.2200       432
  38.2400       439
  38.2600       409
  38.2800       438
  38.3000       412
  38.3200       419
  38.3400       404
  38.3600       432
  38.3800       492
  38.4000       437
  38.4200       454
  38.4400       464
  38.4600       420
  38.4800       451
  38.5000       444
  38.5200       428
  38.5400       449
  38.5600       437
  38.5800       437
  38.6000       425
  38.6200       458
  38.6400       498
  38.6600       468
  38.6800       440
  38.7000       470
  38.7200       476
  38.7400       514
  38.7600       456
  38.7800       519
  38.8000       477
  38.8200       487
  38.8400       502
  38.8600       454
  38.8800       486
