; C:\Data\Jenni\Praktikum B2.2\11-12-18-Jï¿½rg\Probe2.raw(Diffrac Plus V1.01 file) converted by XCH V1.0
_FILEVERSION=2
_SAMPLE='Probe2'
_SITE='II. Physikalisches Institut'
_ATTACHMENTS_CODE=0
_GONIOMETER_RADIUS=200.500000
_FIXED_DIVSLIT=2.000000
_FIXED_SAMPLESLIT=1.000000
_FIXED_DETSLIT=0.200000
_MONOCHROMATOR=0
; None
_THIN_FILM='N'
_BETA_FILTER='Y'
_FIXED_ANTISLIT=2.000000
_ANALYZER_CODE=0
; None
_DATEMEASURED='13-Dec-2018 08:08:21'
_WL_UNIT='A'
_WL1=1.540590
_WL2=1.544430
_WL3=1.392230
_WLRATIO=0.520000
_ANODE='Cu'
; (Data for Range number 1)
_DRIVE='COUPLED'
_STEPTIME=5.000000
_STEPSIZE=0.020000
_STEPMODE='C'
_START=20.000000
_THETA=10.000000
_2THETA=20.000000
_KHI=0.000000
_PHI=0.000000
_X=0.000000
_Y=0.000000
_Z=0.000000
_DIVERGENCE=0.000000
_ANTISCATTER=0.000000
_DETECTOR=1
; S.C.
_HV=1000.000000
_GAIN=80.000000
_LLD=0.550000
_ULD=1.310000
_DETECTORSLIT='unkn'
_AUX1=0.000000
_AUX2=0.000000
_AUX3=0.000000
_TIMESTARTED=18.000000
_ROTATION_SPEED=120.000000
_TEMP_RATE=-1.000000
_TEMP_DELAY=-1.000000
_KV=40
_MA=40
_RANGE_WL=1.540590
_3DPLANE=0
_2THETACOUNTS
  20.0000       533
  20.0200       558
  20.0400       526
  20.0600       538
  20.0800       515
  20.1000       547
  20.1200       583
  20.1400       571
  20.1600       480
  20.1800       571
  20.2000       523
  20.2200       520
  20.2400       537
  20.2600       541
  20.2800       512
  20.3000       591
  20.3200       500
  20.3400       497
  20.3600       537
  20.3800       548
  20.4000       543
  20.4200       552
  20.4400       556
  20.4600       545
  20.4800       538
  20.5000       555
  20.5200       583
  20.5400       525
  20.5600       574
  20.5800       543
  20.6000       523
  20.6200       612
  20.6400       503
  20.6600       569
  20.6800       549
  20.7000       579
  20.7200       570
  20.7400       563
  20.7600       540
  20.7800       533
  20.8000       601
  20.8200       571
  20.8400       588
  20.8600       573
  20.8800       547
  20.9000       574
  20.9200       565
  20.9400       565
  20.9600       566
  20.9800       600
  21.0000       595
  21.0200       561
  21.0400       562
  21.0600       590
  21.0800       547
  21.1000       544
  21.1200       589
  21.1400       644
  21.1600       617
  21.1800       621
  21.2000       604
  21.2200       617
  21.2400       607
  21.2600       572
  21.2800       595
  21.3000       643
  21.3200       615
  21.3400       608
  21.3600       648
  21.3800       605
  21.4000       611
  21.4200       624
  21.4400       606
  21.4600       629
  21.4800       665
  21.5000       599
  21.5200       570
  21.5400       575
  21.5600       619
  21.5800       586
  21.6000       617
  21.6200       593
  21.6400       619
  21.6600       598
  21.6800       603
  21.7000       646
  21.7200       668
  21.7400       643
  21.7600       621
  21.7800       643
  21.8000       621
  21.8200       641
  21.8400       602
  21.8600       606
  21.8800       601
  21.9000       623
  21.9200       617
  21.9400       619
  21.9600       609
  21.9800       594
  22.0000       621
  22.0200       656
  22.0400       670
  22.0600       644
  22.0800       609
  22.1000       613
  22.1200       661
  22.1400       636
  22.1600       585
  22.1800       673
  22.2000       611
  22.2200       595
  22.2400       584
  22.2600       658
  22.2800       663
  22.3000       649
  22.3200       633
  22.3400       614
  22.3600       618
  22.3800       634
  22.4000       677
  22.4200       664
  22.4400       632
  22.4600       648
  22.4800       621
  22.5000       646
  22.5200       642
  22.5400       668
  22.5600       647
  22.5800       646
  22.6000       642
  22.6200       657
  22.6400       638
  22.6600       613
  22.6800       660
  22.7000       655
  22.7200       623
  22.7400       654
  22.7600       620
  22.7800       657
  22.8000       681
  22.8200       656
  22.8400       677
  22.8600       700
  22.8800       641
  22.9000       716
  22.9200       686
  22.9400       727
  22.9600       660
  22.9800       639
  23.0000       621
  23.0200       668
  23.0400       690
  23.0600       687
  23.0800       678
  23.1000       680
  23.1200       662
  23.1400       644
  23.1600       670
  23.1800       685
  23.2000       682
  23.2200       668
  23.2400       677
  23.2600       684
  23.2800       684
  23.3000       706
  23.3200       630
  23.3400       657
  23.3600       687
  23.3800       695
  23.4000       641
  23.4200       669
  23.4400       659
  23.4600       673
  23.4800       699
  23.5000       653
  23.5200       707
  23.5400       723
  23.5600       671
  23.5800       703
  23.6000       665
  23.6200       755
  23.6400       739
  23.6600       670
  23.6800       744
  23.7000       710
  23.7200       728
  23.7400       725
  23.7600       732
  23.7800       704
  23.8000       713
  23.8200       713
  23.8400       696
  23.8600       702
  23.8800       706
  23.9000       715
  23.9200       670
  23.9400       743
  23.9600       751
  23.9800       696
  24.0000       715
  24.0200       746
  24.0400       729
  24.0600       729
  24.0800       681
  24.1000       745
  24.1200       720
  24.1400       689
  24.1600       714
  24.1800       728
  24.2000       718
  24.2200       705
  24.2400       659
  24.2600       676
  24.2800       688
  24.3000       673
  24.3200       694
  24.3400       700
  24.3600       704
  24.3800       711
  24.4000       664
  24.4200       678
  24.4400       707
  24.4600       691
  24.4800       713
  24.5000       678
  24.5200       686
  24.5400       661
  24.5600       704
  24.5800       719
  24.6000       676
  24.6200       732
  24.6400       694
  24.6600       651
  24.6800       672
  24.7000       665
  24.7200       671
  24.7400       667
  24.7600       698
  24.7800       724
  24.8000       696
  24.8200       651
  24.8400       701
  24.8600       660
  24.8800       678
  24.9000       662
  24.9200       682
  24.9400       698
  24.9600       639
  24.9800       700
  25.0000       714
  25.0200       757
  25.0400       658
  25.0600       668
  25.0800       667
  25.1000       702
  25.1200       674
  25.1400       693
  25.1600       657
  25.1800       671
  25.2000       673
  25.2200       724
  25.2400       676
  25.2600       620
  25.2800       682
  25.3000       664
  25.3200       665
  25.3400       709
  25.3600       685
  25.3800       730
  25.4000       701
  25.4200       693
  25.4400       665
  25.4600       672
  25.4800       677
  25.5000       671
  25.5200       634
  25.5400       669
  25.5600       666
  25.5800       654
  25.6000       648
  25.6200       658
  25.6400       696
  25.6600       680
  25.6800       644
  25.7000       700
  25.7200       670
  25.7400       664
  25.7600       693
  25.7800       684
  25.8000       640
  25.8200       656
  25.8400       675
  25.8600       700
  25.8800       637
  25.9000       684
  25.9200       653
  25.9400       682
  25.9600       673
  25.9800       682
  26.0000       622
  26.0200       651
  26.0400       662
  26.0600       661
  26.0800       643
  26.1000       639
  26.1200       646
  26.1400       672
  26.1600       688
  26.1800       635
  26.2000       646
  26.2200       677
  26.2400       668
  26.2600       666
  26.2800       676
  26.3000       619
  26.3200       664
  26.3400       705
  26.3600       645
  26.3800       714
  26.4000       703
  26.4200       679
  26.4400       703
  26.4600       674
  26.4800       638
  26.5000       693
  26.5200       680
  26.5400       679
  26.5600       666
  26.5800       673
  26.6000       665
  26.6200       686
  26.6400       646
  26.6600       641
  26.6800       650
  26.7000       665
  26.7200       640
  26.7400       658
  26.7600       656
  26.7800       629
  26.8000       711
  26.8200       663
  26.8400       683
  26.8600       633
  26.8800       665
  26.9000       656
  26.9200       645
  26.9400       646
  26.9600       693
  26.9800       615
  27.0000       713
  27.0200       661
  27.0400       616
  27.0600       637
  27.0800       694
  27.1000       653
  27.1200       613
  27.1400       641
  27.1600       623
  27.1800       655
  27.2000       692
  27.2200       625
  27.2400       689
  27.2600       678
  27.2800       670
  27.3000       670
  27.3200       657
  27.3400       601
  27.3600       680
  27.3800       652
  27.4000       648
  27.4200       651
  27.4400       656
  27.4600       672
  27.4800       667
  27.5000       700
  27.5200       640
  27.5400       620
  27.5600       675
  27.5800       680
  27.6000       675
  27.6200       655
  27.6400       672
  27.6600       638
  27.6800       677
  27.7000       660
  27.7200       687
  27.7400       629
  27.7600       637
  27.7800       639
  27.8000       661
  27.8200       645
  27.8400       612
  27.8600       638
  27.8800       620
  27.9000       664
  27.9200       655
  27.9400       618
  27.9600       598
  27.9800       651
  28.0000       657
  28.0200       655
  28.0400       664
  28.0600       641
  28.0800       600
  28.1000       623
  28.1200       619
  28.1400       613
  28.1600       650
  28.1800       631
  28.2000       593
  28.2200       639
  28.2400       678
  28.2600       703
  28.2800       689
  28.3000       748
  28.3200       741
  28.3400       741
  28.3600       656
  28.3800       673
  28.4000       641
  28.4200       667
  28.4400       654
  28.4600       602
  28.4800       657
  28.5000       621
  28.5200       624
  28.5400       590
  28.5600       624
  28.5800       597
  28.6000       657
  28.6200       607
  28.6400       618
  28.6600       623
  28.6800       659
  28.7000       630
  28.7200       587
  28.7400       619
  28.7600       629
  28.7800       605
  28.8000       650
  28.8200       616
  28.8400       620
  28.8600       643
  28.8800       645
  28.9000       621
  28.9200       616
  28.9400       627
  28.9600       598
  28.9800       594
  29.0000       646
  29.0200       620
  29.0400       632
  29.0600       665
  29.0800       582
  29.1000       608
  29.1200       619
  29.1400       599
  29.1600       616
  29.1800       672
  29.2000       572
  29.2200       644
  29.2400       610
  29.2600       624
  29.2800       584
  29.3000       619
  29.3200       621
  29.3400       621
  29.3600       600
  29.3800       602
  29.4000       614
  29.4200       610
  29.4400       593
  29.4600       612
  29.4800       606
  29.5000       631
  29.5200       605
  29.5400       598
  29.5600       668
  29.5800       624
  29.6000       688
  29.6200       619
  29.6400       650
  29.6600       581
  29.6800       629
  29.7000       600
  29.7200       611
  29.7400       665
  29.7600       627
  29.7800       600
  29.8000       605
  29.8200       632
  29.8400       633
  29.8600       606
  29.8800       588
  29.9000       592
  29.9200       660
  29.9400       620
  29.9600       560
  29.9800       632
  30.0000       575
  30.0200       604
  30.0400       615
  30.0600       611
  30.0800       607
  30.1000       602
  30.1200       597
  30.1400       620
  30.1600       643
  30.1800       634
  30.2000       655
  30.2200       615
  30.2400       646
  30.2600       608
  30.2800       579
  30.3000       648
  30.3200       610
  30.3400       598
  30.3600       609
  30.3800       616
  30.4000       590
  30.4200       633
  30.4400       562
  30.4600       590
  30.4800       600
  30.5000       611
  30.5200       652
  30.5400       600
  30.5600       601
  30.5800       603
  30.6000       600
  30.6200       637
  30.6400       570
  30.6600       602
  30.6800       618
  30.7000       569
  30.7200       619
  30.7400       622
  30.7600       658
  30.7800       621
  30.8000       637
  30.8200       594
  30.8400       607
  30.8600       611
  30.8800       580
  30.9000       634
  30.9200       622
  30.9400       603
  30.9600       593
  30.9800       673
  31.0000       601
  31.0200       646
  31.0400       577
  31.0600       581
  31.0800       656
  31.1000       586
  31.1200       607
  31.1400       597
  31.1600       634
  31.1800       595
  31.2000       615
  31.2200       616
  31.2400       628
  31.2600       635
  31.2800       622
  31.3000       606
  31.3200       592
  31.3400       640
  31.3600       618
  31.3800       571
  31.4000       587
  31.4200       639
  31.4400       623
  31.4600       624
  31.4800       596
  31.5000       650
  31.5200       617
  31.5400       629
  31.5600       651
  31.5800       593
  31.6000       635
  31.6200       640
  31.6400       642
  31.6600       627
  31.6800       593
  31.7000       621
  31.7200       590
  31.7400       657
  31.7600       573
  31.7800       629
  31.8000       631
  31.8200       611
  31.8400       623
  31.8600       592
  31.8800       599
  31.9000       624
  31.9200       613
  31.9400       628
  31.9600       590
  31.9800       603
  32.0000       616
  32.0200       589
  32.0400       566
  32.0600       598
  32.0800       632
  32.1000       602
  32.1200       571
  32.1400       596
  32.1600       566
  32.1800       632
  32.2000       593
  32.2200       609
  32.2400       590
  32.2600       593
  32.2800       611
  32.3000       647
  32.3200       577
  32.3400       627
  32.3600       590
  32.3800       610
  32.4000       586
  32.4200       617
  32.4400       611
  32.4600       605
  32.4800       613
  32.5000       571
  32.5200       631
  32.5400       635
  32.5600       638
  32.5800       641
  32.6000       617
  32.6200       599
  32.6400       608
  32.6600       593
  32.6800       607
  32.7000       608
  32.7200       580
  32.7400       627
  32.7600       621
  32.7800       581
  32.8000       616
  32.8200       601
  32.8400       643
  32.8600       633
  32.8800       632
  32.9000       611
  32.9200       620
  32.9400       600
  32.9600       656
  32.9800       588
  33.0000       568
  33.0200       563
  33.0400       621
  33.0600       593
  33.0800       573
  33.1000       595
  33.1200       624
  33.1400       644
  33.1600       603
  33.1800       661
  33.2000       586
  33.2200       612
  33.2400       604
  33.2600       635
  33.2800       609
  33.3000       635
  33.3200       619
  33.3400       583
  33.3600       622
  33.3800       658
  33.4000       622
  33.4200       621
  33.4400       626
  33.4600       583
  33.4800       659
  33.5000       642
  33.5200       649
  33.5400       604
  33.5600       659
  33.5800       615
  33.6000       623
  33.6200       635
  33.6400       612
  33.6600       646
  33.6800       593
  33.7000       604
  33.7200       632
  33.7400       640
  33.7600       647
  33.7800       623
  33.8000       577
  33.8200       612
  33.8400       606
  33.8600       683
  33.8800       609
  33.9000       652
  33.9200       654
  33.9400       650
  33.9600       600
  33.9800       637
  34.0000       674
  34.0200       618
  34.0400       610
  34.0600       650
  34.0800       628
  34.1000       644
  34.1200       668
  34.1400       661
  34.1600       642
  34.1800       679
  34.2000       606
  34.2200       616
  34.2400       639
  34.2600       627
  34.2800       635
  34.3000       625
  34.3200       594
  34.3400       669
  34.3600       675
  34.3800       663
  34.4000       604
  34.4200       603
  34.4400       646
  34.4600       652
  34.4800       701
  34.5000       620
  34.5200       606
  34.5400       634
  34.5600       640
  34.5800       609
  34.6000       637
  34.6200       626
  34.6400       655
  34.6600       617
  34.6800       627
  34.7000       636
  34.7200       628
  34.7400       586
  34.7600       628
  34.7800       611
  34.8000       584
  34.8200       605
  34.8400       595
  34.8600       616
  34.8800       580
  34.9000       595
  34.9200       656
  34.9400       591
  34.9600       589
  34.9800       593
  35.0000       599
  35.0200       639
  35.0400       619
  35.0600       638
  35.0800       572
  35.1000       593
  35.1200       608
  35.1400       603
  35.1600       547
  35.1800       612
  35.2000       578
  35.2200       619
  35.2400       590
  35.2600       611
  35.2800       581
  35.3000       601
  35.3200       607
  35.3400       612
  35.3600       573
  35.3800       610
  35.4000       593
  35.4200       610
  35.4400       640
  35.4600       582
  35.4800       630
  35.5000       559
  35.5200       615
  35.5400       565
  35.5600       559
  35.5800       613
  35.6000       605
  35.6200       596
  35.6400       587
  35.6600       555
  35.6800       580
  35.7000       557
  35.7200       589
  35.7400       559
  35.7600       551
  35.7800       604
  35.8000       549
  35.8200       576
  35.8400       588
  35.8600       591
  35.8800       567
  35.9000       580
  35.9200       584
  35.9400       577
  35.9600       585
  35.9800       587
  36.0000       589
  36.0200       574
  36.0400       544
  36.0600       584
  36.0800       604
  36.1000       640
  36.1200       589
  36.1400       598
  36.1600       628
  36.1800       570
  36.2000       609
  36.2200       572
  36.2400       615
  36.2600       592
  36.2800       585
  36.3000       594
  36.3200       576
  36.3400       579
  36.3600       591
  36.3800       606
  36.4000       574
  36.4200       587
  36.4400       573
  36.4600       595
  36.4800       573
  36.5000       614
  36.5200       581
  36.5400       615
  36.5600       599
  36.5800       585
  36.6000       576
  36.6200       589
  36.6400       546
  36.6600       598
  36.6800       550
  36.7000       600
  36.7200       580
  36.7400       554
  36.7600       537
  36.7800       595
  36.8000       591
  36.8200       593
  36.8400       619
  36.8600       599
  36.8800       597
  36.9000       556
  36.9200       560
  36.9400       584
  36.9600       561
  36.9800       601
  37.0000       610
  37.0200       552
  37.0400       564
  37.0600       595
  37.0800       575
  37.1000       639
  37.1200       643
  37.1400       572
  37.1600       593
  37.1800       559
  37.2000       583
  37.2200       583
  37.2400       593
  37.2600       547
  37.2800       603
  37.3000       582
  37.3200       626
  37.3400       615
  37.3600       604
  37.3800       620
  37.4000       602
  37.4200       543
  37.4400       597
  37.4600       625
  37.4800       617
  37.5000       606
  37.5200       636
  37.5400       604
  37.5600       662
  37.5800       639
  37.6000       658
  37.6200       640
  37.6400       609
  37.6600       635
  37.6800       627
  37.7000       646
  37.7200       620
  37.7400       664
  37.7600       666
  37.7800       657
  37.8000       628
  37.8200       656
  37.8400       638
  37.8600       640
  37.8800       623
  37.9000       631
  37.9200       656
  37.9400       637
  37.9600       619
  37.9800       575
  38.0000       594
  38.0200       623
  38.0400       606
  38.0600       661
  38.0800       649
  38.1000       624
  38.1200       622
  38.1400       647
  38.1600       642
  38.1800       625
  38.2000       634
  38.2200       635
  38.2400       659
  38.2600       661
  38.2800       639
  38.3000       687
  38.3200       640
  38.3400       641
  38.3600       680
  38.3800       652
  38.4000       638
  38.4200       648
  38.4400       665
  38.4600       657
  38.4800       618
  38.5000       621
  38.5200       578
  38.5400       626
  38.5600       604
  38.5800       648
  38.6000       639
  38.6200       639
  38.6400       618
  38.6600       590
  38.6800       597
  38.7000       601
  38.7200       652
  38.7400       574
  38.7600       646
  38.7800       588
  38.8000       567
  38.8200       624
  38.8400       595
  38.8600       622
  38.8800       613
  38.9000       630
